SpectraSuite Data File
++++++++++++++++++++++++++++++++++++
Date: Fri May 12 15:34:51 EDT 2017
User: jcherston
Dark Spectrum Present: Yes
Reference Spectrum Present: Yes
Number of Sampled Component Spectra: 1
Spectrometers: USB4F06975
Integration Time (usec): 100000 (USB4F06975)
Spectra Averaged: 1 (USB4F06975)
Boxcar Smoothing: 0 (USB4F06975)
Correct for Electrical Dark: No (USB4F06975)
Strobe/Lamp Enabled: No (USB4F06975)
Correct for Detector Non-linearity: No (USB4F06975)
Correct for Stray Light: No (USB4F06975)
Number of Pixels in Processed Spectrum: 3648
>>>>>Begin Processed Spectral Data<<<<<
346.57	1464.30
346.78	1464.30
346.99	1464.30
347.20	1443.82
347.41	1394.67
347.62	1572.84
347.83	1568.74
348.04	1595.37
348.25	1613.80
348.46	1538.02
348.67	1687.53
348.88	1576.94
349.09	1621.99
349.30	1628.14
349.51	1587.18
349.72	1624.04
349.93	1499.11
350.14	1578.98
350.35	1646.57
350.56	1660.90
350.77	1636.33
350.98	1548.26
351.19	1619.94
351.40	1652.71
351.61	1630.18
351.82	1597.42
352.03	1525.74
352.24	1615.85
352.45	1621.99
352.66	1630.18
352.87	1583.08
353.08	1665.00
353.29	1615.85
353.50	1726.44
353.71	1636.33
353.92	1613.80
354.13	1677.29
354.34	1613.80
354.55	1509.35
354.76	1609.70
354.97	1542.12
355.18	1570.79
355.39	1515.50
355.60	1662.95
355.80	1597.42
356.01	1533.93
356.22	1540.07
356.43	1587.18
356.64	1554.41
356.85	1581.03
357.06	1495.02
357.27	1624.04
357.48	1587.18
357.69	1564.65
357.90	1595.37
358.11	1607.66
358.32	1591.27
358.53	1519.59
358.74	1652.71
358.95	1548.26
359.16	1687.53
359.37	1650.66
359.58	1587.18
359.79	1523.69
360.00	1679.33
360.21	1511.40
360.42	1665.00
360.63	1562.60
360.84	1640.42
361.05	1562.60
361.26	1595.37
361.46	1511.40
361.67	1562.60
361.88	1638.38
362.09	1568.74
362.30	1619.94
362.51	1654.76
362.72	1601.51
362.93	1611.75
363.14	1544.17
363.35	1726.44
363.56	1546.22
363.77	1601.51
363.98	1660.90
364.19	1673.19
364.40	1558.50
364.61	1654.76
364.82	1546.22
365.03	1658.85
365.24	1630.18
365.44	1519.59
365.65	1583.08
365.86	1644.52
366.07	1634.28
366.28	1681.38
366.49	1597.42
366.70	1556.46
366.91	1654.76
367.12	1634.28
367.33	1613.80
367.54	1611.75
367.75	1652.71
367.96	1603.56
368.17	1634.28
368.38	1636.33
368.58	1591.27
368.79	1695.72
369.00	1601.51
369.21	1683.43
369.42	1589.22
369.63	1621.99
369.84	1630.18
370.05	1554.41
370.26	1613.80
370.47	1642.47
370.68	1568.74
370.89	1626.09
371.09	1556.46
371.30	1605.61
371.51	1630.18
371.72	1521.64
371.93	1587.18
372.14	1587.18
372.35	1617.90
372.56	1570.79
372.77	1578.98
372.98	1554.41
373.19	1552.36
373.40	1566.70
373.60	1591.27
373.81	1599.46
374.02	1615.85
374.23	1576.94
374.44	1630.18
374.65	1640.42
374.86	1576.94
375.07	1652.71
375.28	1632.23
375.49	1634.28
375.69	1564.65
375.90	1632.23
376.11	1613.80
376.32	1501.16
376.53	1548.26
376.74	1558.50
376.95	1611.75
377.16	1615.85
377.37	1558.50
377.58	1609.70
377.78	1595.37
377.99	1499.11
378.20	1593.32
378.41	1636.33
378.62	1624.04
378.83	1574.89
379.04	1589.22
379.25	1691.62
379.46	1611.75
379.66	1554.41
379.87	1583.08
380.08	1648.61
380.29	1529.83
380.50	1599.46
380.71	1562.60
380.92	1615.85
381.13	1595.37
381.33	1576.94
381.54	1667.05
381.75	1636.33
381.96	1605.61
382.17	1562.60
382.38	1624.04
382.59	1556.46
382.80	1570.79
383.00	1621.99
383.21	1578.98
383.42	1513.45
383.63	1546.22
383.84	1732.58
384.05	1581.03
384.26	1599.46
384.47	1603.56
384.67	1583.08
384.88	1497.07
385.09	1538.02
385.30	1654.76
385.51	1621.99
385.72	1648.61
385.93	1550.31
386.13	1681.38
386.34	1671.14
386.55	1589.22
386.76	1568.74
386.97	1572.84
387.18	1556.46
387.39	1492.97
387.59	1605.61
387.80	1630.18
388.01	1630.18
388.22	1671.14
388.43	1585.13
388.64	1566.70
388.85	1648.61
389.05	1583.08
389.26	1681.38
389.47	1605.61
389.68	1597.42
389.89	1574.89
390.10	1656.81
390.31	1517.54
390.51	1607.66
390.72	1570.79
390.93	1619.94
391.14	1650.66
391.35	1597.42
391.56	1624.04
391.76	1673.19
391.97	1609.70
392.18	1509.35
392.39	1601.51
392.60	1695.72
392.81	1619.94
393.01	1615.85
393.22	1578.98
393.43	1591.27
393.64	1581.03
393.85	1552.36
394.06	1574.89
394.26	1654.76
394.47	1589.22
394.68	1642.47
394.89	1548.26
395.10	1611.75
395.31	1632.23
395.51	1624.04
395.72	1556.46
395.93	1605.61
396.14	1607.66
396.35	1603.56
396.55	1542.12
396.76	1599.46
396.97	1636.33
397.18	1566.70
397.39	1662.95
397.60	1525.74
397.80	1589.22
398.01	1617.90
398.22	1644.52
398.43	1595.37
398.64	1513.45
398.84	1566.70
399.05	1630.18
399.26	1611.75
399.47	1570.79
399.68	1544.17
399.88	1554.41
400.09	1589.22
400.30	1607.66
400.51	1611.75
400.72	1638.38
400.92	1581.03
401.13	1591.27
401.34	1685.48
401.55	1585.13
401.76	1619.94
401.96	1617.90
402.17	1607.66
402.38	1615.85
402.59	1742.82
402.80	1943.52
403.00	1564.65
403.21	1556.46
403.42	1529.83
403.63	1636.33
403.84	1632.23
404.04	1591.27
404.25	1589.22
404.46	1669.09
404.67	1593.32
404.88	1613.80
405.08	1595.37
405.29	1660.90
405.50	1642.47
405.71	1603.56
405.91	1583.08
406.12	1589.22
406.33	1578.98
406.54	1585.13
406.75	1687.53
406.95	1470.44
407.16	1640.42
407.37	1613.80
407.58	1617.90
407.78	1949.67
407.99	1603.56
408.20	1533.93
408.41	1669.09
408.62	1542.12
408.82	1533.93
409.03	1550.31
409.24	1595.37
409.45	1552.36
409.65	1611.75
409.86	1585.13
410.07	1662.95
410.28	1507.30
410.48	1621.99
410.69	1589.22
410.90	1525.74
411.11	1693.67
411.31	1603.56
411.52	1671.14
411.73	1740.77
411.94	1687.53
412.14	1595.37
412.35	1540.07
412.56	1630.18
412.77	1517.54
412.98	1521.64
413.18	1562.60
413.39	1607.66
413.60	1566.70
413.81	1589.22
414.01	1581.03
414.22	1599.46
414.43	1624.04
414.64	1517.54
414.84	1626.09
415.05	1497.07
415.26	1609.70
415.46	1587.18
415.67	1603.56
415.88	1533.93
416.09	1578.98
416.29	1652.71
416.50	1624.04
416.71	1581.03
416.92	1628.14
417.12	1613.80
417.33	1578.98
417.54	1601.51
417.75	1587.18
417.95	1626.09
418.16	1642.47
418.37	1578.98
418.58	1589.22
418.78	1576.94
418.99	1587.18
419.20	1605.61
419.40	1701.86
419.61	1572.84
419.82	1499.11
420.03	1658.85
420.23	1607.66
420.44	1628.14
420.65	1589.22
420.85	1574.89
421.06	1574.89
421.27	1599.46
421.48	1583.08
421.68	1654.76
421.89	1595.37
422.10	1589.22
422.30	1587.18
422.51	1517.54
422.72	1632.23
422.93	1570.79
423.13	1648.61
423.34	1646.57
423.55	1617.90
423.75	1630.18
423.96	1576.94
424.17	1624.04
424.38	1529.83
424.58	1523.69
424.79	1548.26
425.00	1578.98
425.20	1634.28
425.41	1677.29
425.62	1619.94
425.83	1564.65
426.03	1585.13
426.24	1611.75
426.45	1644.52
426.65	1574.89
426.86	1509.35
427.07	1568.74
427.27	1658.85
427.48	1587.18
427.69	1613.80
427.89	1587.18
428.10	1712.10
428.31	1603.56
428.52	1638.38
428.72	1578.98
428.93	1630.18
429.14	1646.57
429.34	1521.64
429.55	1578.98
429.76	1560.55
429.96	1619.94
430.17	1640.42
430.38	1605.61
430.58	1574.89
430.79	1599.46
431.00	1578.98
431.20	1617.90
431.41	1644.52
431.62	1697.77
431.82	1572.84
432.03	1628.14
432.24	1576.94
432.44	1603.56
432.65	1652.71
432.86	1697.77
433.06	1572.84
433.27	1611.75
433.48	1681.38
433.68	1597.42
433.89	1611.75
434.10	1636.33
434.30	1619.94
434.51	1572.84
434.72	1544.17
434.92	1619.94
435.13	1554.41
435.34	1656.81
435.54	1613.80
435.75	1636.33
435.96	1533.93
436.16	1652.71
436.37	1554.41
436.58	1607.66
436.78	1578.98
436.99	1591.27
437.20	1642.47
437.40	1701.86
437.61	1581.03
437.82	1599.46
438.02	1624.04
438.23	1636.33
438.43	1693.67
438.64	1632.23
438.85	1624.04
439.05	1607.66
439.26	1587.18
439.47	1585.13
439.67	1603.56
439.88	1548.26
440.09	1566.70
440.29	1638.38
440.50	1587.18
440.71	1599.46
440.91	1640.42
441.12	1576.94
441.32	1548.26
441.53	1556.46
441.74	1619.94
441.94	1503.21
442.15	1597.42
442.36	1636.33
442.56	1611.75
442.77	1714.15
442.97	1570.79
443.18	1722.34
443.39	1667.05
443.59	1613.80
443.80	1578.98
444.01	1615.85
444.21	1624.04
444.42	1648.61
444.62	1560.55
444.83	1576.94
445.04	1550.31
445.24	1560.55
445.45	1648.61
445.66	1578.98
445.86	1609.70
446.07	1587.18
446.27	1644.52
446.48	1523.69
446.69	1574.89
446.89	1628.14
447.10	1546.22
447.30	1578.98
447.51	1531.88
447.72	1673.19
447.92	1728.49
448.13	1611.75
448.33	1546.22
448.54	1597.42
448.75	1527.78
448.95	1589.22
449.16	1540.07
449.36	1671.14
449.57	1605.61
449.78	1673.19
449.98	1642.47
450.19	1583.08
450.39	1531.88
450.60	1648.61
450.81	1636.33
451.01	1513.45
451.22	1560.55
451.42	1624.04
451.63	1619.94
451.84	1599.46
452.04	1564.65
452.25	1644.52
452.45	1642.47
452.66	1652.71
452.86	1595.37
453.07	1658.85
453.28	1560.55
453.48	1626.09
453.69	1617.90
453.89	1542.12
454.10	1599.46
454.30	1611.75
454.51	1578.98
454.72	1603.56
454.92	1568.74
455.13	1521.64
455.33	1589.22
455.54	1576.94
455.74	1634.28
455.95	1638.38
456.16	1568.74
456.36	1578.98
456.57	1603.56
456.77	1595.37
456.98	1660.90
457.18	1587.18
457.39	1570.79
457.60	1609.70
457.80	1634.28
458.01	1615.85
458.21	1621.99
458.42	1599.46
458.62	1581.03
458.83	1558.50
459.03	1615.85
459.24	1681.38
459.45	1640.42
459.65	1578.98
459.86	1673.19
460.06	1603.56
460.27	1574.89
460.47	1562.60
460.68	1681.38
460.88	1685.48
461.09	1628.14
461.30	1615.85
461.50	1619.94
461.71	1591.27
461.91	1492.97
462.12	1566.70
462.32	1599.46
462.53	1595.37
462.73	1574.89
462.94	1669.09
463.14	1619.94
463.35	1636.33
463.55	1677.29
463.76	1570.79
463.96	1640.42
464.17	1589.22
464.38	1646.57
464.58	1570.79
464.79	1660.90
464.99	1603.56
465.20	1644.52
465.40	1560.55
465.61	1562.60
465.81	1634.28
466.02	1572.84
466.22	1685.48
466.43	1619.94
466.63	1617.90
466.84	1628.14
467.04	1589.22
467.25	1533.93
467.45	1646.57
467.66	1619.94
467.86	1656.81
468.07	1599.46
468.27	1574.89
468.48	1564.65
468.68	1636.33
468.89	1583.08
469.09	1529.83
469.30	1611.75
469.51	1583.08
469.71	1609.70
469.92	1574.89
470.12	1669.09
470.33	1603.56
470.53	1517.54
470.74	1591.27
470.94	1587.18
471.15	1660.90
471.35	2037.73
471.56	1583.08
471.76	1558.50
471.97	1615.85
472.17	1587.18
472.38	1687.53
472.58	1628.14
472.78	1556.46
472.99	1626.09
473.19	1595.37
473.40	1574.89
473.60	1763.30
473.81	1513.45
474.01	1595.37
474.22	1597.42
474.42	1691.62
474.63	1644.52
474.83	1560.55
475.04	1593.32
475.24	1599.46
475.45	1759.21
475.65	1609.70
475.86	1509.35
476.06	1521.64
476.27	1601.51
476.47	1568.74
476.68	1583.08
476.88	1665.00
477.09	1609.70
477.29	1556.46
477.50	1615.85
477.70	1544.17
477.90	1517.54
478.11	1587.18
478.31	1615.85
478.52	1595.37
478.72	1552.36
478.93	1533.93
479.13	1656.81
479.34	1523.69
479.54	1581.03
479.75	1538.02
479.95	1568.74
480.16	1658.85
480.36	1628.14
480.56	1511.40
480.77	1529.83
480.97	1662.95
481.18	1574.89
481.38	1722.34
481.59	1619.94
481.79	1535.98
482.00	1607.66
482.20	1638.38
482.41	1849.32
482.61	1634.28
482.81	1660.90
483.02	1615.85
483.22	1611.75
483.43	1634.28
483.63	1677.29
483.84	1558.50
484.04	1695.72
484.24	1585.13
484.45	1646.57
484.65	1697.77
484.86	1662.95
485.06	1677.29
485.27	1578.98
485.47	1632.23
485.68	1640.42
485.88	1585.13
486.08	1572.84
486.29	1654.76
486.49	1652.71
486.70	1628.14
486.90	1699.81
487.11	1650.66
487.31	1640.42
487.51	1587.18
487.72	1619.94
487.92	1673.19
488.13	1695.72
488.33	1640.42
488.53	1611.75
488.74	1626.09
488.94	1613.80
489.15	1636.33
489.35	1626.09
489.56	1564.65
489.76	1701.86
489.96	1644.52
490.17	1615.85
490.37	1693.67
490.58	1669.09
490.78	1595.37
490.98	1593.32
491.19	1611.75
491.39	1607.66
491.60	1648.61
491.80	1548.26
492.00	1554.41
492.21	1638.38
492.41	1636.33
492.62	1574.89
492.82	1558.50
493.02	1570.79
493.23	1687.53
493.43	1607.66
493.64	1544.17
493.84	1632.23
494.04	1703.91
494.25	1587.18
494.45	1605.61
494.66	1609.70
494.86	1675.24
495.06	1554.41
495.27	1595.37
495.47	1652.71
495.67	1628.14
495.88	1570.79
496.08	1615.85
496.29	1685.48
496.49	1654.76
496.69	1630.18
496.90	1613.80
497.10	1654.76
497.30	1568.74
497.51	1615.85
497.71	1656.81
497.92	1595.37
498.12	1550.31
498.32	1587.18
498.53	1601.51
498.73	1660.90
498.93	1746.92
499.14	1597.42
499.34	1673.19
499.55	1595.37
499.75	1595.37
499.95	1619.94
500.16	1695.72
500.36	1662.95
500.56	1568.74
500.77	1646.57
500.97	1683.43
501.17	1658.85
501.38	1533.93
501.58	1646.57
501.79	1705.96
501.99	1556.46
502.19	1628.14
502.40	1605.61
502.60	1634.28
502.80	1617.90
503.01	1693.67
503.21	1619.94
503.41	1628.14
503.62	1615.85
503.82	1558.50
504.02	1656.81
504.23	1617.90
504.43	1712.10
504.63	1636.33
504.84	1566.70
505.04	1644.52
505.24	1681.38
505.45	1691.62
505.65	1603.56
505.85	1589.22
506.06	1675.24
506.26	1562.60
506.46	1591.27
506.67	1581.03
506.87	1632.23
507.07	1667.05
507.28	1675.24
507.48	1632.23
507.68	1644.52
507.89	1665.00
508.09	1654.76
508.29	1568.74
508.50	1626.09
508.70	1695.72
508.90	1665.00
509.11	1732.58
509.31	1662.95
509.51	1660.90
509.72	1693.67
509.92	1693.67
510.12	1564.65
510.32	1636.33
510.53	1652.71
510.73	1638.38
510.93	1624.04
511.14	1660.90
511.34	1644.52
511.54	1603.56
511.75	1660.90
511.95	1734.63
512.15	1595.37
512.36	1701.86
512.56	1617.90
512.76	1632.23
512.96	1654.76
513.17	1677.29
513.37	1611.75
513.57	1638.38
513.78	1595.37
513.98	1646.57
514.18	1628.14
514.38	1615.85
514.59	1624.04
514.79	1656.81
514.99	1591.27
515.20	1632.23
515.40	1564.65
515.60	1662.95
515.80	1589.22
516.01	1683.43
516.21	1710.05
516.41	1595.37
516.62	1619.94
516.82	1615.85
517.02	1617.90
517.22	1662.95
517.43	1695.72
517.63	1654.76
517.83	1585.13
518.04	1615.85
518.24	1589.22
518.44	1624.04
518.64	1660.90
518.85	1695.72
519.05	1619.94
519.25	1574.89
519.45	1718.25
519.66	1701.86
519.86	1599.46
520.06	1576.94
520.26	1689.57
520.47	1564.65
520.67	1675.24
520.87	1669.09
521.08	1677.29
521.28	1681.38
521.48	1796.07
521.68	1613.80
521.89	1646.57
522.09	1648.61
522.29	1662.95
522.49	1624.04
522.70	1685.48
522.90	1701.86
523.10	1691.62
523.30	1609.70
523.51	1611.75
523.71	1636.33
523.91	1636.33
524.11	1687.53
524.31	1644.52
524.52	1693.67
524.72	1605.61
524.92	1687.53
525.12	1595.37
525.33	1591.27
525.53	1660.90
525.73	1693.67
525.93	1660.90
526.14	1578.98
526.34	1646.57
526.54	1595.37
526.74	1644.52
526.95	1695.72
527.15	1630.18
527.35	1662.95
527.55	1673.19
527.75	1568.74
527.96	1603.56
528.16	1624.04
528.36	1554.41
528.56	1619.94
528.77	1548.26
528.97	1648.61
529.17	1660.90
529.37	1587.18
529.57	1669.09
529.78	1658.85
529.98	1589.22
530.18	1685.48
530.38	1654.76
530.58	1669.09
530.79	1621.99
530.99	1652.71
531.19	1634.28
531.39	1679.33
531.59	1654.76
531.80	1673.19
532.00	1644.52
532.20	1626.09
532.40	1607.66
532.60	1654.76
532.81	1681.38
533.01	1599.46
533.21	1642.47
533.41	1693.67
533.61	1566.70
533.82	1677.29
534.02	1585.13
534.22	1677.29
534.42	1634.28
534.62	1714.15
534.83	1669.09
535.03	1660.90
535.23	1566.70
535.43	1662.95
535.63	1640.42
535.83	1703.91
536.04	1656.81
536.24	1632.23
536.44	1578.98
536.64	1644.52
536.84	1705.96
537.05	1621.99
537.25	1730.53
537.45	1638.38
537.65	1611.75
537.85	1679.33
538.05	1689.57
538.26	1589.22
538.46	1708.01
538.66	1650.66
538.86	1603.56
539.06	1683.43
539.26	1636.33
539.47	1636.33
539.67	1562.60
539.87	1744.87
540.07	1705.96
540.27	1720.29
540.47	1703.91
540.68	1742.82
540.88	1726.44
541.08	1640.42
541.28	1693.67
541.48	1667.05
541.68	1609.70
541.88	1769.44
542.09	1624.04
542.29	1710.05
542.49	1644.52
542.69	1804.26
542.89	1746.92
543.09	1693.67
543.29	1658.85
543.50	1644.52
543.70	1665.00
543.90	1712.10
544.10	1701.86
544.30	1675.24
544.50	1656.81
544.70	1687.53
544.91	1728.49
545.11	1662.95
545.31	1791.97
545.51	1654.76
545.71	1667.05
545.91	1757.16
546.11	1621.99
546.31	1636.33
546.52	1638.38
546.72	1718.25
546.92	1673.19
547.12	1681.38
547.32	1619.94
547.52	1656.81
547.72	1681.38
547.92	1697.77
548.13	1628.14
548.33	1718.25
548.53	1693.67
548.73	1714.15
548.93	1652.71
549.13	1732.58
549.33	1681.38
549.53	1617.90
549.73	1714.15
549.94	1636.33
550.14	1710.05
550.34	1669.09
550.54	1677.29
550.74	1705.96
550.94	1767.40
551.14	1744.87
551.34	1648.61
551.54	1630.18
551.74	1626.09
551.95	1640.42
552.15	1716.20
552.35	1652.71
552.55	1628.14
552.75	1724.39
552.95	1648.61
553.15	1628.14
553.35	1671.14
553.55	1728.49
553.75	1679.33
553.95	1671.14
554.16	1603.56
554.36	1632.23
554.56	1611.75
554.76	1669.09
554.96	1665.00
555.16	1689.57
555.36	1695.72
555.56	1693.67
555.76	1654.76
555.96	1693.67
556.16	1718.25
556.36	1738.73
556.57	1726.44
556.77	1677.29
556.97	1740.77
557.17	1724.39
557.37	1652.71
557.57	1630.18
557.77	1714.15
557.97	1556.46
558.17	1697.77
558.37	1710.05
558.57	1722.34
558.77	1636.33
558.97	1662.95
559.17	1658.85
559.37	1595.37
559.57	1648.61
559.78	1628.14
559.98	1624.04
560.18	1662.95
560.38	1734.63
560.58	1701.86
560.78	1714.15
560.98	1652.71
561.18	1701.86
561.38	1624.04
561.58	1683.43
561.78	1722.34
561.98	1728.49
562.18	1630.18
562.38	1791.97
562.58	1775.59
562.78	1703.91
562.98	1646.57
563.18	1791.97
563.38	1667.05
563.58	1685.48
563.78	1712.10
563.98	1667.05
564.18	1646.57
564.38	1677.29
564.58	1701.86
564.79	1679.33
564.99	1689.57
565.19	1669.09
565.39	1691.62
565.59	1734.63
565.79	1667.05
565.99	1693.67
566.19	1624.04
566.39	1705.96
566.59	1714.15
566.79	1691.62
566.99	1705.96
567.19	1751.01
567.39	1693.67
567.59	1726.44
567.79	1685.48
567.99	1638.38
568.19	1695.72
568.39	1701.86
568.59	1617.90
568.79	1648.61
568.99	1656.81
569.19	1548.26
569.39	1748.97
569.59	1644.52
569.79	1630.18
569.99	1734.63
570.19	1611.75
570.39	1685.48
570.59	1759.21
570.79	1621.99
570.99	1589.22
571.19	1605.61
571.39	1667.05
571.59	1677.29
571.79	1689.57
571.99	1681.38
572.19	1697.77
572.39	1710.05
572.59	1722.34
572.79	1638.38
572.99	1609.70
573.19	1705.96
573.39	1732.58
573.59	1617.90
573.79	1603.56
573.99	1656.81
574.19	1705.96
574.38	1718.25
574.58	1650.66
574.78	1673.19
574.98	1685.48
575.18	1726.44
575.38	1658.85
575.58	1685.48
575.78	1761.25
575.98	1699.81
576.18	1658.85
576.38	1701.86
576.58	1697.77
576.78	1683.43
576.98	1619.94
577.18	1718.25
577.38	1765.35
577.58	1828.84
577.78	1646.57
577.98	1652.71
578.18	1656.81
578.38	1703.91
578.58	1673.19
578.78	1726.44
578.98	1654.76
579.18	1665.00
579.37	1685.48
579.57	1677.29
579.77	1787.88
579.97	1738.73
580.17	1660.90
580.37	1605.61
580.57	1800.16
580.77	1701.86
580.97	2074.59
581.17	1644.52
581.37	1648.61
581.57	1669.09
581.77	1574.89
581.97	1679.33
582.17	1632.23
582.37	1779.68
582.56	1767.40
582.76	1638.38
582.96	1648.61
583.16	1699.81
583.36	1722.34
583.56	1720.29
583.76	1621.99
583.96	1710.05
584.16	1724.39
584.36	1685.48
584.56	1701.86
584.76	1722.34
584.95	1826.79
585.15	1665.00
585.35	1701.86
585.55	1679.33
585.75	1753.06
585.95	1632.23
586.15	1665.00
586.35	1679.33
586.55	1701.86
586.75	1683.43
586.95	1626.09
587.14	1638.38
587.34	1703.91
587.54	1669.09
587.74	1740.77
587.94	1671.14
588.14	1759.21
588.34	1730.53
588.54	1720.29
588.74	1640.42
588.94	1662.95
589.13	1685.48
589.33	1722.34
589.53	1646.57
589.73	1685.48
589.93	1734.63
590.13	1640.42
590.33	1673.19
590.53	1646.57
590.72	1660.90
590.92	1744.87
591.12	1644.52
591.32	1581.03
591.52	1644.52
591.72	1662.95
591.92	1777.64
592.12	1687.53
592.32	1673.19
592.51	1640.42
592.71	1744.87
592.91	1675.24
593.11	1751.01
593.31	1619.94
593.51	1611.75
593.71	1718.25
593.90	1677.29
594.10	1687.53
594.30	1761.25
594.50	1787.88
594.70	1640.42
594.90	1685.48
595.10	1740.77
595.29	1753.06
595.49	1677.29
595.69	1740.77
595.89	1714.15
596.09	1640.42
596.29	1724.39
596.49	1660.90
596.68	1685.48
596.88	1660.90
597.08	1744.87
597.28	1738.73
597.48	1734.63
597.68	1660.90
597.87	1755.11
598.07	1769.44
598.27	1665.00
598.47	1652.71
598.67	1720.29
598.87	1744.87
599.06	1673.19
599.26	1705.96
599.46	1824.74
599.66	1685.48
599.86	1660.90
600.06	1761.25
600.25	1689.57
600.45	1734.63
600.65	1710.05
600.85	1703.91
601.05	1738.73
601.25	1724.39
601.44	1765.35
601.64	1650.66
601.84	1832.93
602.04	1693.67
602.24	1587.18
602.43	1705.96
602.63	1654.76
602.83	1710.05
603.03	1703.91
603.23	1714.15
603.42	1789.92
603.62	1662.95
603.82	1693.67
604.02	1703.91
604.22	1687.53
604.42	1570.79
604.61	1732.58
604.81	1697.77
605.01	1728.49
605.21	2013.15
605.40	1667.05
605.60	1673.19
605.80	1767.40
606.00	1785.83
606.20	1744.87
606.39	1730.53
606.59	1742.82
606.79	1687.53
606.99	1644.52
607.19	1665.00
607.38	1720.29
607.58	1679.33
607.78	1765.35
607.98	1736.68
608.18	1595.37
608.37	1732.58
608.57	1607.66
608.77	1734.63
608.97	1732.58
609.16	1656.81
609.36	1673.19
609.56	1800.16
609.76	1669.09
609.95	1652.71
610.15	1791.97
610.35	1681.38
